# DUSTEM: exciting radiation field featuring 
# Mathis ISRF
# Blackbody with     T=   0.0000E+00   2.7280E+00
# dilution factor wdil=   1.0000E+00   4.0000E+00
# Nbr of points
# wave (microns), 4*pi*Inu (erg/cm2/s/Hz)
 200
 1.000000E-02   0.000000E+00
 1.084810E-02   0.000000E+00
 1.176812E-02   0.000000E+00
 1.276617E-02   0.000000E+00
 1.384886E-02   0.000000E+00
 1.502338E-02   0.000000E+00
 1.629751E-02   0.000000E+00
 1.767969E-02   0.000000E+00
 1.917910E-02   0.000000E+00
 2.080568E-02   0.000000E+00
 2.257020E-02   0.000000E+00
 2.448437E-02   0.000000E+00
 2.656088E-02   0.000000E+00
 2.881350E-02   0.000000E+00
 3.125716E-02   0.000000E+00
 3.390807E-02   0.000000E+00
 3.678380E-02   0.000000E+00
 3.990342E-02   0.000000E+00
 4.328761E-02   0.000000E+00
 4.695882E-02   0.000000E+00
 5.094138E-02   0.000000E+00
 5.526170E-02   0.000000E+00
 5.994843E-02   0.000000E+00
 6.503263E-02   0.000000E+00
 7.054802E-02   0.000000E+00
 7.653118E-02   0.000000E+00
 8.302176E-02   0.000000E+00
 9.006280E-02   0.000000E+00
 9.112671E-02   2.985600E-19
 9.770100E-02   4.354315E-19
 1.059870E-01   6.767636E-19
 1.149757E-01   9.013876E-19
 1.247267E-01   1.060764E-18
 1.353048E-01   1.220098E-18
 1.467799E-01   1.253542E-18
 1.592283E-01   1.287904E-18
 1.727324E-01   1.323207E-18
 1.873817E-01   1.359478E-18
 2.032735E-01   1.396744E-18
 2.205131E-01   1.435031E-18
 2.392147E-01   1.474367E-18
 2.595024E-01   1.787678E-18
 2.815107E-01   2.524208E-18
 3.053856E-01   3.426931E-18
 3.312852E-01   4.498694E-18
 3.593814E-01   5.742887E-18
 3.898604E-01   7.168480E-18
 4.229243E-01   8.793641E-18
 4.587923E-01   1.064607E-17
 4.977024E-01   1.275890E-17
 5.399123E-01   1.516230E-17
 5.857021E-01   1.787225E-17
 6.353753E-01   2.087910E-17
 6.892612E-01   2.413896E-17
 7.477172E-01   2.757034E-17
 8.111308E-01   3.105747E-17
 8.799225E-01   3.445995E-17
 9.545485E-01   3.762689E-17
 1.035503E+00   4.041294E-17
 1.123324E+00   4.269319E-17
 1.218593E+00   4.437455E-17
 1.321941E+00   4.540239E-17
 1.434054E+00   4.576192E-17
 1.555676E+00   4.547518E-17
 1.687612E+00   4.459466E-17
 1.830738E+00   4.319521E-17
 1.986003E+00   4.136549E-17
 2.154435E+00   3.920000E-17
 2.337152E+00   3.679238E-17
 2.535364E+00   3.423036E-17
 2.750388E+00   3.159233E-17
 2.983647E+00   2.894534E-17
 3.236689E+00   2.634441E-17
 3.511192E+00   2.383270E-17
 3.808975E+00   2.144236E-17
 4.132012E+00   1.919572E-17
 4.482447E+00   1.710672E-17
 4.862602E+00   1.518237E-17
 5.274997E+00   1.342411E-17
 5.722368E+00   1.182912E-17
 6.207680E+00   1.039138E-17
 6.734151E+00   9.102673E-18
 7.305272E+00   7.953331E-18
 7.924829E+00   6.932860E-18
 8.596931E+00   6.030438E-18
 9.326033E+00   5.235276E-18
 1.011697E+01   4.536890E-18
 1.097499E+01   3.925291E-18
 1.190577E+01   3.391104E-18
 1.291550E+01   2.925642E-18
 1.401086E+01   2.520938E-18
 1.519911E+01   2.169751E-18
 1.648814E+01   1.865545E-18
 1.788650E+01   1.602463E-18
 1.940344E+01   1.375279E-18
 2.104904E+01   1.179358E-18
 2.283420E+01   1.010606E-18
 2.477076E+01   8.654166E-19
 2.687156E+01   7.406279E-19
 2.915053E+01   6.334731E-19
 3.162278E+01   5.415392E-19
 3.430469E+01   4.627256E-19
 3.721406E+01   3.952082E-19
 4.037017E+01   3.374059E-19
 4.379395E+01   2.879505E-19
 4.750810E+01   2.456600E-19
 5.153725E+01   2.095147E-19
 5.590810E+01   1.786360E-19
 6.064965E+01   1.522677E-19
 6.579332E+01   1.297598E-19
 7.137323E+01   1.105541E-19
 7.742637E+01   9.417148E-20
 8.399287E+01   8.020123E-20
 9.111628E+01   6.829145E-20
 9.884381E+01   5.814085E-20
 1.072267E+02   4.949163E-20
 1.163206E+02   4.212331E-20
 1.261857E+02   3.584747E-20
 1.368875E+02   3.050312E-20
 1.484968E+02   2.595328E-20
 1.610908E+02   2.208617E-20
 1.747528E+02   1.885475E-20
 1.895736E+02   1.658119E-20
 2.056512E+02   1.776362E-20
 2.230924E+02   3.584727E-20
 2.420128E+02   1.306278E-19
 2.625378E+02   5.282703E-19
 2.848036E+02   1.965709E-18
 3.089577E+02   6.531899E-18
 3.351603E+02   1.942174E-17
 3.635851E+02   5.205149E-17
 3.944206E+02   1.267253E-16
 4.278713E+02   2.823616E-16
 4.641589E+02   5.797766E-16
 5.035240E+02   1.104085E-15
 5.462277E+02   1.961516E-15
 5.925531E+02   3.268842E-15
 6.428073E+02   5.135642E-15
 6.973236E+02   7.642174E-15
 7.564633E+02   1.081771E-14
 8.206187E+02   1.462484E-14
 8.902151E+02   1.895415E-14
 9.657139E+02   2.363113E-14
 1.047616E+03   2.843414E-14
 1.136464E+03   3.311966E-14
 1.232847E+03   3.744971E-14
 1.337404E+03   4.121645E-14
 1.450829E+03   4.426033E-14
 1.573873E+03   4.647992E-14
 1.707353E+03   4.783350E-14
 1.852153E+03   4.833389E-14
 2.009233E+03   4.803868E-14
 2.179635E+03   4.703818E-14
 2.364489E+03   4.544300E-14
 2.565021E+03   4.337288E-14
 2.782559E+03   4.094742E-14
 3.018547E+03   3.827922E-14
 3.274549E+03   3.546923E-14
 3.552262E+03   3.260421E-14
 3.853529E+03   2.975574E-14
 4.180345E+03   2.698050E-14
 4.534879E+03   2.432126E-14
 4.919480E+03   2.180850E-14
 5.336699E+03   1.946210E-14
 5.789303E+03   1.729323E-14
 6.280291E+03   1.530604E-14
 6.812921E+03   1.349924E-14
 7.390722E+03   1.186748E-14
 8.017526E+03   1.040255E-14
 8.697490E+03   9.094295E-15
 9.435121E+03   7.931412E-15
 1.023531E+04   6.902056E-15
 1.110336E+04   5.994294E-15
 1.204504E+04   5.196442E-15
 1.306657E+04   4.497303E-15
 1.417474E+04   3.886325E-15
 1.537690E+04   3.353700E-15
 1.668101E+04   2.890408E-15
 1.809572E+04   2.488232E-15
 1.963041E+04   2.139747E-15
 2.129525E+04   1.838283E-15
 2.310130E+04   1.577889E-15
 2.506051E+04   1.353277E-15
 2.718588E+04   1.159772E-15
 2.949151E+04   9.932565E-16
 3.199267E+04   8.501141E-16
 3.470596E+04   7.271812E-16
 3.764936E+04   6.216961E-16
 4.084239E+04   5.312544E-16
 4.430621E+04   4.537671E-16
 4.806381E+04   3.874229E-16
 5.214008E+04   3.306540E-16
 5.656206E+04   2.821056E-16
 6.135907E+04   2.406087E-16
 6.656291E+04   2.051557E-16
 7.220809E+04   1.748794E-16
 7.833203E+04   1.490342E-16
 8.497534E+04   1.269797E-16
 9.218207E+04   1.081661E-16
 1.000000E+05   9.212224E-17
