# DUSTEM: exciting radiation field featuring 
# Mathis ISRF
# Blackbody with     T=   0.0000E+00
# dilution factor wdil=   1.0000E+00
# Nbr of points
# wave (microns), 4*pi*Inu (erg/cm2/s/Hz)
 200
 1.000000E-02   0.000000E+00
 1.084810E-02   0.000000E+00
 1.176812E-02   0.000000E+00
 1.276617E-02   0.000000E+00
 1.384886E-02   0.000000E+00
 1.502338E-02   0.000000E+00
 1.629751E-02   0.000000E+00
 1.767969E-02   0.000000E+00
 1.917910E-02   0.000000E+00
 2.080568E-02   0.000000E+00
 2.257020E-02   0.000000E+00
 2.448437E-02   0.000000E+00
 2.656088E-02   0.000000E+00
 2.881350E-02   0.000000E+00
 3.125716E-02   0.000000E+00
 3.390807E-02   0.000000E+00
 3.678380E-02   0.000000E+00
 3.990342E-02   0.000000E+00
 4.328761E-02   0.000000E+00
 4.695882E-02   0.000000E+00
 5.094138E-02   0.000000E+00
 5.526170E-02   0.000000E+00
 5.994843E-02   0.000000E+00
 6.503263E-02   0.000000E+00
 7.054802E-02   0.000000E+00
 7.653118E-02   0.000000E+00
 8.302176E-02   0.000000E+00
 9.006280E-02   0.000000E+00
 9.112671E-02   2.985600E-19
 9.770100E-02   4.354315E-19
 1.059870E-01   6.767636E-19
 1.149757E-01   9.013876E-19
 1.247267E-01   1.060764E-18
 1.353048E-01   1.220098E-18
 1.467799E-01   1.253542E-18
 1.592283E-01   1.287904E-18
 1.727324E-01   1.323207E-18
 1.873817E-01   1.359478E-18
 2.032735E-01   1.396744E-18
 2.205131E-01   1.435031E-18
 2.392147E-01   1.474367E-18
 2.595024E-01   1.805754E-18
 2.815107E-01   2.548107E-18
 3.053856E-01   3.457467E-18
 3.312852E-01   4.536665E-18
 3.593814E-01   5.789155E-18
 3.898604E-01   7.224065E-18
 4.229243E-01   8.859801E-18
 4.587923E-01   1.072431E-17
 4.977024E-01   1.285091E-17
 5.399123E-01   1.526976E-17
 5.857021E-01   1.799663E-17
 6.353753E-01   2.102135E-17
 6.892612E-01   2.429925E-17
 7.477172E-01   2.774793E-17
 8.111308E-01   3.125062E-17
 8.799225E-01   3.466602E-17
 9.545485E-01   3.784252E-17
 1.035503E+00   4.063432E-17
 1.123324E+00   4.291635E-17
 1.218593E+00   4.459565E-17
 1.321941E+00   4.561796E-17
 1.434054E+00   4.596903E-17
 1.555676E+00   4.567149E-17
 1.687612E+00   4.477847E-17
 1.830738E+00   4.336546E-17
 1.986003E+00   4.152164E-17
 2.154435E+00   3.934198E-17
 2.337152E+00   3.692050E-17
 2.535364E+00   3.434519E-17
 2.750388E+00   3.169463E-17
 2.983647E+00   2.903601E-17
 3.236689E+00   2.642439E-17
 3.511192E+00   2.390297E-17
 3.808975E+00   2.150387E-17
 4.132012E+00   1.924940E-17
 4.482447E+00   1.715344E-17
 4.862602E+00   1.522293E-17
 5.274997E+00   1.345924E-17
 5.722368E+00   1.185949E-17
 6.207680E+00   1.041759E-17
 6.734151E+00   9.125264E-18
 7.305272E+00   7.972773E-18
 7.924829E+00   6.949573E-18
 8.596931E+00   6.044788E-18
 9.326033E+00   5.247586E-18
 1.011697E+01   4.547441E-18
 1.097499E+01   3.934327E-18
 1.190577E+01   3.398837E-18
 1.291550E+01   2.932256E-18
 1.401086E+01   2.526592E-18
 1.519911E+01   2.174581E-18
 1.648814E+01   1.869670E-18
 1.788650E+01   1.605984E-18
 1.940344E+01   1.378283E-18
 2.104904E+01   1.181921E-18
 2.283420E+01   1.012791E-18
 2.477076E+01   8.672794E-19
 2.687156E+01   7.422153E-19
 2.915053E+01   6.348257E-19
 3.162278E+01   5.426913E-19
 3.430469E+01   4.637068E-19
 3.721406E+01   3.960437E-19
 4.037017E+01   3.381172E-19
 4.379395E+01   2.885560E-19
 4.750810E+01   2.461754E-19
 5.153725E+01   2.099533E-19
 5.590810E+01   1.790092E-19
 6.064965E+01   1.525852E-19
 6.579332E+01   1.300299E-19
 7.137323E+01   1.107839E-19
 7.742637E+01   9.436692E-20
 8.399287E+01   8.036745E-20
 9.111628E+01   6.843282E-20
 9.884381E+01   5.826107E-20
 1.072267E+02   4.959385E-20
 1.163206E+02   4.221023E-20
 1.261857E+02   3.592137E-20
 1.368875E+02   3.056592E-20
 1.484968E+02   2.600613E-20
 1.610908E+02   2.212438E-20
 1.747528E+02   1.882032E-20
 1.895736E+02   1.600835E-20
 2.056512E+02   1.361547E-20
 2.230924E+02   1.157945E-20
 2.420128E+02   9.847246E-21
 2.625378E+02   8.373663E-21
 2.848036E+02   7.120197E-21
 3.089577E+02   6.054055E-21
 3.351603E+02   5.147309E-21
 3.635851E+02   4.376180E-21
 3.944206E+02   3.720427E-21
 4.278713E+02   3.162819E-21
 4.641589E+02   2.688693E-21
 5.035240E+02   2.285569E-21
 5.462277E+02   1.942831E-21
 5.925531E+02   1.651445E-21
 6.428073E+02   1.403726E-21
 6.973236E+02   1.193139E-21
 7.564633E+02   1.014123E-21
 8.206187E+02   8.619495E-22
 8.902151E+02   7.325974E-22
 9.657139E+02   6.226468E-22
 1.047616E+03   5.291901E-22
 1.136464E+03   4.497545E-22
 1.232847E+03   3.822380E-22
 1.337404E+03   3.248532E-22
 1.450829E+03   2.760804E-22
 1.573873E+03   2.346279E-22
 1.707353E+03   1.993976E-22
 1.852153E+03   1.694558E-22
 2.009233E+03   1.440089E-22
 2.179635E+03   1.223825E-22
 2.364489E+03   1.040031E-22
 2.565021E+03   8.838339E-23
 2.782559E+03   7.510910E-23
 3.018547E+03   6.382814E-23
 3.274549E+03   5.424125E-23
 3.552262E+03   4.609410E-23
 3.853529E+03   3.917051E-23
 4.180345E+03   3.328675E-23
 4.534879E+03   2.828669E-23
 4.919480E+03   2.403762E-23
 5.336699E+03   2.042676E-23
 5.789303E+03   1.735826E-23
 6.280291E+03   1.475068E-23
 6.812921E+03   1.253478E-23
 7.390722E+03   1.065174E-23
 8.017526E+03   9.051564E-24
 8.697490E+03   7.691761E-24
 9.435121E+03   6.536229E-24
 1.023531E+04   5.554284E-24
 1.110336E+04   4.719851E-24
 1.204504E+04   4.010771E-24
 1.306657E+04   3.408215E-24
 1.417474E+04   2.896180E-24
 1.537690E+04   2.461069E-24
 1.668101E+04   2.091325E-24
 1.809572E+04   1.777129E-24
 1.963041E+04   1.510136E-24
 2.129525E+04   1.283254E-24
 2.310130E+04   1.090458E-24
 2.506051E+04   9.266276E-25
 2.718588E+04   7.874103E-25
 2.949151E+04   6.691088E-25
 3.199267E+04   5.685808E-25
 3.470596E+04   4.831561E-25
 3.764936E+04   4.105656E-25
 4.084239E+04   3.488811E-25
 4.430621E+04   2.964641E-25
 4.806381E+04   2.519224E-25
 5.214008E+04   2.140727E-25
 5.656206E+04   1.819096E-25
 6.135907E+04   1.545788E-25
 6.656291E+04   1.313542E-25
 7.220809E+04   1.116190E-25
 7.833203E+04   9.484884E-26
 8.497534E+04   8.059830E-26
 9.218207E+04   6.848882E-26
 1.000000E+05   5.819872E-26
